! FASCOD Model 4. Subarctic Summer Atmosphere
! Transformed to RFM .atm file format by program USARFM v.23-AUG-96
  50  ! No.Levels in profiles
*HGT [km]
       0.0,       1.0,       2.0,       3.0,       4.0,
       5.0,       6.0,       7.0,       8.0,       9.0,
      10.0,      11.0,      12.0,      13.0,      14.0,
      15.0,      16.0,      17.0,      18.0,      19.0,
      20.0,      21.0,      22.0,      23.0,      24.0,
      25.0,      27.5,      30.0,      32.5,      35.0,
      37.5,      40.0,      42.5,      45.0,      47.5,
      50.0,      55.0,      60.0,      65.0,      70.0,
      75.0,      80.0,      85.0,      90.0,      95.0,
     100.0,     105.0,     110.0,     115.0,     120.0
*PRE [mb]
 1.010E+03, 8.960E+02, 7.929E+02, 7.000E+02, 6.160E+02,
 5.410E+02, 4.740E+02, 4.130E+02, 3.590E+02, 3.108E+02,
 2.677E+02, 2.300E+02, 1.977E+02, 1.700E+02, 1.460E+02,
 1.260E+02, 1.080E+02, 9.280E+01, 7.980E+01, 6.860E+01,
 5.900E+01, 5.070E+01, 4.360E+01, 3.750E+01, 3.228E+01,
 2.780E+01, 1.923E+01, 1.340E+01, 9.400E+00, 6.610E+00,
 4.720E+00, 3.400E+00, 2.480E+00, 1.820E+00, 1.340E+00,
 9.870E-01, 5.370E-01, 2.880E-01, 1.470E-01, 7.100E-02,
 3.200E-02, 1.250E-02, 4.510E-03, 1.610E-03, 6.060E-04,
 2.480E-04, 1.130E-04, 6.000E-05, 3.540E-05, 2.260E-05
*TEM [K]
    287.20,    281.70,    276.30,    270.90,    265.50,
    260.10,    253.10,    246.10,    239.20,    232.20,
    225.20,    225.20,    225.20,    225.20,    225.20,
    225.20,    225.20,    225.20,    225.20,    225.20,
    225.20,    225.20,    225.20,    225.20,    226.60,
    228.10,    231.00,    235.10,    240.00,    247.20,
    254.60,    262.10,    269.50,    273.60,    276.20,
    277.20,    274.00,    262.70,    239.70,    216.60,
    193.60,    170.60,    161.70,    161.60,    176.80,
    190.40,    226.00,    270.10,    322.70,    380.00
*H2O [ppmv]
 1.194E+04, 8.701E+03, 6.750E+03, 4.820E+03, 3.380E+03,
 2.218E+03, 1.330E+03, 7.971E+02, 3.996E+02, 1.300E+02,
 4.240E+01, 1.330E+01, 6.000E+00, 4.450E+00, 4.000E+00,
 4.000E+00, 4.000E+00, 4.050E+00, 4.300E+00, 4.500E+00,
 4.600E+00, 4.700E+00, 4.800E+00, 4.830E+00, 4.850E+00,
 4.900E+00, 4.950E+00, 5.000E+00, 5.000E+00, 5.000E+00,
 5.000E+00, 5.000E+00, 5.000E+00, 5.000E+00, 5.000E+00,
 4.950E+00, 4.850E+00, 4.500E+00, 4.000E+00, 3.300E+00,
 2.700E+00, 2.000E+00, 1.330E+00, 8.500E-01, 5.400E-01,
 4.000E-01, 3.400E-01, 2.800E-01, 2.400E-01, 2.000E-01
*CO2 [ppmv]
 3.300E+02, 3.300E+02, 3.300E+02, 3.300E+02, 3.300E+02,
 3.300E+02, 3.300E+02, 3.300E+02, 3.300E+02, 3.300E+02,
 3.300E+02, 3.300E+02, 3.300E+02, 3.300E+02, 3.300E+02,
 3.300E+02, 3.300E+02, 3.300E+02, 3.300E+02, 3.300E+02,
 3.300E+02, 3.300E+02, 3.300E+02, 3.300E+02, 3.300E+02,
 3.300E+02, 3.300E+02, 3.300E+02, 3.300E+02, 3.300E+02,
 3.300E+02, 3.300E+02, 3.300E+02, 3.300E+02, 3.300E+02,
 3.300E+02, 3.300E+02, 3.300E+02, 3.300E+02, 3.300E+02,
 3.300E+02, 3.280E+02, 3.200E+02, 3.100E+02, 2.700E+02,
 1.950E+02, 1.100E+02, 6.000E+01, 4.000E+01, 3.500E+01
*O3  [ppmv]
 2.412E-02, 2.940E-02, 3.379E-02, 3.887E-02, 4.478E-02,
 5.328E-02, 6.564E-02, 7.738E-02, 9.114E-02, 1.420E-01,
 1.890E-01, 3.050E-01, 4.100E-01, 5.000E-01, 6.000E-01,
 7.000E-01, 8.500E-01, 1.000E+00, 1.300E+00, 1.700E+00,
 2.100E+00, 2.700E+00, 3.300E+00, 3.700E+00, 4.200E+00,
 4.500E+00, 5.300E+00, 5.700E+00, 6.900E+00, 7.700E+00,
 7.800E+00, 7.000E+00, 5.400E+00, 4.200E+00, 3.200E+00,
 2.500E+00, 1.700E+00, 1.200E+00, 8.000E-01, 4.000E-01,
 2.000E-01, 1.800E-01, 6.500E-01, 9.000E-01, 8.000E-01,
 4.000E-01, 2.000E-01, 5.000E-02, 5.000E-03, 5.000E-04
*N2O [ppmv]
 3.100E-01, 3.100E-01, 3.100E-01, 3.100E-01, 3.079E-01,
 3.024E-01, 2.906E-01, 2.822E-01, 2.759E-01, 2.703E-01,
 2.651E-01, 2.600E-01, 2.549E-01, 2.494E-01, 2.433E-01,
 2.355E-01, 2.282E-01, 2.179E-01, 2.035E-01, 1.817E-01,
 1.567E-01, 1.350E-01, 1.218E-01, 1.102E-01, 9.893E-02,
 8.775E-02, 7.327E-02, 5.941E-02, 4.154E-02, 3.032E-02,
 1.949E-02, 1.274E-02, 9.001E-03, 6.286E-03, 4.558E-03,
 2.795E-03, 1.765E-03, 1.214E-03, 8.866E-04, 6.756E-04,
 5.538E-04, 4.649E-04, 3.979E-04, 3.459E-04, 3.047E-04,
 2.713E-04, 2.439E-04, 2.210E-04, 2.017E-04, 1.851E-04
*CO  [ppmv]
 1.500E-01, 1.450E-01, 1.399E-01, 1.349E-01, 1.312E-01,
 1.303E-01, 1.288E-01, 1.247E-01, 1.185E-01, 1.094E-01,
 9.962E-02, 8.964E-02, 7.814E-02, 6.374E-02, 5.025E-02,
 3.941E-02, 3.069E-02, 2.489E-02, 1.966E-02, 1.549E-02,
 1.331E-02, 1.232E-02, 1.232E-02, 1.307E-02, 1.400E-02,
 1.510E-02, 1.649E-02, 1.808E-02, 1.997E-02, 2.183E-02,
 2.343E-02, 2.496E-02, 2.647E-02, 2.809E-02, 2.999E-02,
 3.220E-02, 3.650E-02, 4.589E-02, 6.375E-02, 1.176E-01,
 3.033E-01, 7.894E-01, 1.823E+00, 3.402E+00, 5.916E+00,
 1.043E+01, 1.881E+01, 2.869E+01, 3.892E+01, 5.000E+01
*CH4 [ppmv]
 1.700E+00, 1.700E+00, 1.700E+00, 1.700E+00, 1.697E+00,
 1.687E+00, 1.672E+00, 1.649E+00, 1.629E+00, 1.615E+00,
 1.579E+00, 1.542E+00, 1.506E+00, 1.471E+00, 1.434E+00,
 1.389E+00, 1.342E+00, 1.290E+00, 1.230E+00, 1.157E+00,
 1.072E+00, 9.903E-01, 9.170E-01, 8.574E-01, 8.013E-01,
 7.477E-01, 6.956E-01, 6.442E-01, 5.888E-01, 5.240E-01,
 4.506E-01, 3.708E-01, 2.992E-01, 2.445E-01, 2.000E-01,
 1.660E-01, 1.500E-01, 1.500E-01, 1.500E-01, 1.500E-01,
 1.500E-01, 1.500E-01, 1.500E-01, 1.400E-01, 1.300E-01,
 1.200E-01, 1.100E-01, 9.500E-02, 6.000E-02, 3.000E-02
*O2  [ppmv]
 2.090E+05, 2.090E+05, 2.090E+05, 2.090E+05, 2.090E+05,
 2.090E+05, 2.090E+05, 2.090E+05, 2.090E+05, 2.090E+05,
 2.090E+05, 2.090E+05, 2.090E+05, 2.090E+05, 2.090E+05,
 2.090E+05, 2.090E+05, 2.090E+05, 2.090E+05, 2.090E+05,
 2.090E+05, 2.090E+05, 2.090E+05, 2.090E+05, 2.090E+05,
 2.090E+05, 2.090E+05, 2.090E+05, 2.090E+05, 2.090E+05,
 2.090E+05, 2.090E+05, 2.090E+05, 2.090E+05, 2.090E+05,
 2.090E+05, 2.090E+05, 2.090E+05, 2.090E+05, 2.090E+05,
 2.090E+05, 2.090E+05, 2.000E+05, 1.900E+05, 1.800E+05,
 1.600E+05, 1.400E+05, 1.200E+05, 9.400E+04, 7.250E+04
*END
