! FASCOD Model 6. U.S. Standard Atmosphere
! Transformed to RFM .atm file format by program USARFM v.23-AUG-96
  50  ! No.Levels in profiles
*HGT [km]
       0.0,       1.0,       2.0,       3.0,       4.0,
       5.0,       6.0,       7.0,       8.0,       9.0,
      10.0,      11.0,      12.0,      13.0,      14.0,
      15.0,      16.0,      17.0,      18.0,      19.0,
      20.0,      21.0,      22.0,      23.0,      24.0,
      25.0,      27.5,      30.0,      32.5,      35.0,
      37.5,      40.0,      42.5,      45.0,      47.5,
      50.0,      55.0,      60.0,      65.0,      70.0,
      75.0,      80.0,      85.0,      90.0,      95.0,
     100.0,     105.0,     110.0,     115.0,     120.0
*PRE [mb]
 1.013E+03, 8.988E+02, 7.950E+02, 7.012E+02, 6.166E+02,
 5.405E+02, 4.722E+02, 4.111E+02, 3.565E+02, 3.080E+02,
 2.650E+02, 2.270E+02, 1.940E+02, 1.658E+02, 1.417E+02,
 1.211E+02, 1.035E+02, 8.850E+01, 7.565E+01, 6.467E+01,
 5.529E+01, 4.729E+01, 4.047E+01, 3.467E+01, 2.972E+01,
 2.549E+01, 1.743E+01, 1.197E+01, 8.010E+00, 5.746E+00,
 4.150E+00, 2.871E+00, 2.060E+00, 1.491E+00, 1.090E+00,
 7.978E-01, 4.250E-01, 2.190E-01, 1.090E-01, 5.220E-02,
 2.400E-02, 1.050E-02, 4.460E-03, 1.840E-03, 7.600E-04,
 3.200E-04, 1.450E-04, 7.100E-05, 4.010E-05, 2.540E-05
*TEM [K]
    288.20,    281.70,    275.20,    268.70,    262.20,
    255.70,    249.20,    242.70,    236.20,    229.70,
    223.30,    216.80,    216.70,    216.70,    216.70,
    216.70,    216.70,    216.70,    216.70,    216.70,
    216.70,    217.60,    218.60,    219.60,    220.60,
    221.60,    224.00,    226.50,    230.00,    236.50,
    242.90,    250.40,    257.30,    264.20,    270.60,
    270.70,    260.80,    247.00,    233.30,    219.60,
    208.40,    198.60,    188.90,    186.90,    188.40,
    195.10,    208.80,    240.00,    300.00,    360.00
*H2O [ppmv]
 7.745E+03, 6.071E+03, 4.631E+03, 3.182E+03, 2.158E+03,
 1.397E+03, 9.254E+02, 5.720E+02, 3.667E+02, 1.583E+02,
 6.996E+01, 3.613E+01, 1.906E+01, 1.085E+01, 5.927E+00,
 5.000E+00, 3.950E+00, 3.850E+00, 3.825E+00, 3.850E+00,
 3.900E+00, 3.975E+00, 4.065E+00, 4.200E+00, 4.300E+00,
 4.425E+00, 4.575E+00, 4.725E+00, 4.825E+00, 4.900E+00,
 4.950E+00, 5.025E+00, 5.150E+00, 5.225E+00, 5.250E+00,
 5.225E+00, 5.100E+00, 4.750E+00, 4.200E+00, 3.500E+00,
 2.825E+00, 2.050E+00, 1.330E+00, 8.500E-01, 5.400E-01,
 4.000E-01, 3.400E-01, 2.800E-01, 2.400E-01, 2.000E-01
*CO2 [ppmv]
 3.300E+02, 3.300E+02, 3.300E+02, 3.300E+02, 3.300E+02,
 3.300E+02, 3.300E+02, 3.300E+02, 3.300E+02, 3.300E+02,
 3.300E+02, 3.300E+02, 3.300E+02, 3.300E+02, 3.300E+02,
 3.300E+02, 3.300E+02, 3.300E+02, 3.300E+02, 3.300E+02,
 3.300E+02, 3.300E+02, 3.300E+02, 3.300E+02, 3.300E+02,
 3.300E+02, 3.300E+02, 3.300E+02, 3.300E+02, 3.300E+02,
 3.300E+02, 3.300E+02, 3.300E+02, 3.300E+02, 3.300E+02,
 3.300E+02, 3.300E+02, 3.300E+02, 3.300E+02, 3.300E+02,
 3.300E+02, 3.280E+02, 3.200E+02, 3.100E+02, 2.700E+02,
 1.950E+02, 1.100E+02, 6.000E+01, 4.000E+01, 3.500E+01
*O3  [ppmv]
 2.660E-02, 2.931E-02, 3.237E-02, 3.318E-02, 3.387E-02,
 3.768E-02, 4.112E-02, 5.009E-02, 5.966E-02, 9.168E-02,
 1.313E-01, 2.149E-01, 3.095E-01, 3.846E-01, 5.030E-01,
 6.505E-01, 8.701E-01, 1.187E+00, 1.587E+00, 2.030E+00,
 2.579E+00, 3.028E+00, 3.647E+00, 4.168E+00, 4.627E+00,
 5.118E+00, 5.803E+00, 6.553E+00, 7.373E+00, 7.837E+00,
 7.800E+00, 7.300E+00, 6.200E+00, 5.250E+00, 4.100E+00,
 3.100E+00, 1.800E+00, 1.100E+00, 7.000E-01, 3.000E-01,
 2.500E-01, 3.000E-01, 5.000E-01, 7.000E-01, 7.000E-01,
 4.000E-01, 2.000E-01, 5.000E-02, 5.000E-03, 5.000E-04
*N2O [ppmv]
 3.200E-01, 3.200E-01, 3.200E-01, 3.200E-01, 3.200E-01,
 3.200E-01, 3.200E-01, 3.200E-01, 3.200E-01, 3.195E-01,
 3.179E-01, 3.140E-01, 3.095E-01, 3.048E-01, 2.999E-01,
 2.944E-01, 2.877E-01, 2.783E-01, 2.671E-01, 2.527E-01,
 2.365E-01, 2.194E-01, 2.051E-01, 1.967E-01, 1.875E-01,
 1.756E-01, 1.588E-01, 1.416E-01, 1.165E-01, 9.275E-02,
 6.693E-02, 4.513E-02, 2.751E-02, 1.591E-02, 9.378E-03,
 4.752E-03, 3.000E-03, 2.065E-03, 1.507E-03, 1.149E-03,
 8.890E-04, 7.056E-04, 5.716E-04, 4.708E-04, 3.932E-04,
 3.323E-04, 2.837E-04, 2.443E-04, 2.120E-04, 1.851E-04
*CO  [ppmv]
 1.500E-01, 1.450E-01, 1.399E-01, 1.349E-01, 1.312E-01,
 1.303E-01, 1.288E-01, 1.247E-01, 1.185E-01, 1.094E-01,
 9.962E-02, 8.964E-02, 7.814E-02, 6.374E-02, 5.025E-02,
 3.941E-02, 3.069E-02, 2.489E-02, 1.966E-02, 1.549E-02,
 1.331E-02, 1.232E-02, 1.232E-02, 1.307E-02, 1.400E-02,
 1.498E-02, 1.598E-02, 1.710E-02, 1.850E-02, 2.009E-02,
 2.220E-02, 2.497E-02, 2.824E-02, 3.241E-02, 3.717E-02,
 4.597E-02, 6.639E-02, 1.073E-01, 1.862E-01, 3.059E-01,
 6.375E-01, 1.497E+00, 3.239E+00, 5.843E+00, 1.013E+01,
 1.692E+01, 2.467E+01, 3.356E+01, 4.148E+01, 5.000E+01
*CH4 [ppmv]
 1.700E+00, 1.700E+00, 1.700E+00, 1.700E+00, 1.700E+00,
 1.700E+00, 1.700E+00, 1.699E+00, 1.697E+00, 1.693E+00,
 1.685E+00, 1.675E+00, 1.662E+00, 1.645E+00, 1.626E+00,
 1.605E+00, 1.582E+00, 1.553E+00, 1.521E+00, 1.480E+00,
 1.424E+00, 1.355E+00, 1.272E+00, 1.191E+00, 1.118E+00,
 1.055E+00, 9.870E-01, 9.136E-01, 8.300E-01, 7.460E-01,
 6.618E-01, 5.638E-01, 4.614E-01, 3.631E-01, 2.773E-01,
 2.100E-01, 1.650E-01, 1.500E-01, 1.500E-01, 1.500E-01,
 1.500E-01, 1.500E-01, 1.500E-01, 1.400E-01, 1.300E-01,
 1.200E-01, 1.100E-01, 9.500E-02, 6.000E-02, 3.000E-02
*O2  [ppmv]
 2.090E+05, 2.090E+05, 2.090E+05, 2.090E+05, 2.090E+05,
 2.090E+05, 2.090E+05, 2.090E+05, 2.090E+05, 2.090E+05,
 2.090E+05, 2.090E+05, 2.090E+05, 2.090E+05, 2.090E+05,
 2.090E+05, 2.090E+05, 2.090E+05, 2.090E+05, 2.090E+05,
 2.090E+05, 2.090E+05, 2.090E+05, 2.090E+05, 2.090E+05,
 2.090E+05, 2.090E+05, 2.090E+05, 2.090E+05, 2.090E+05,
 2.090E+05, 2.090E+05, 2.090E+05, 2.090E+05, 2.090E+05,
 2.090E+05, 2.090E+05, 2.090E+05, 2.090E+05, 2.090E+05,
 2.090E+05, 2.090E+05, 2.000E+05, 1.900E+05, 1.800E+05,
 1.600E+05, 1.400E+05, 1.200E+05, 9.400E+04, 7.250E+04
*END
